File: V44/datastefan/rocking_scan_2.UXD
; C:\DIFFDAT1\Praktikum\Christian_Stefan\rocking_scan_2.raw(Diffrac Plus V1.01 file) converted by XCH V1.0
_FILEVERSION=2
_SITE='Deutschland'
_USER='Administrator'
_GONIOMETER_CODE=4885
; D8 Theta/Theta; Special
_SAMPLE_CHANGER_CODE=0
_ATTACHMENTS_CODE=0
_GONIOMETER_RADIUS=350
_FIXED_DIVSLIT=0.600000
_FIXED_SAMPLESLIT=0.000000
_FIXED_DETSLIT=11.66
_MONOCHROMATOR=0
; None
_THIN_FILM='N'
_BETA_FILTER='Y'
_FIXED_ANTISLIT=8.340000
_ANALYZER_CODE=0
; None
_DATEMEASURED='16-Oct-2023 10:27:25'
_WL_UNIT='A'
_WL1=1.540600
_WL2=1.544390
_WL3=1.392220
_WLRATIO=0.500000
_ANODE='Cu'
; (Data for Range number 1)
_DRIVE='THETA'
_STEPTIME=0.999980
_STEPSIZE=0.005000
_STEPMODE='C'
_START=0.000000
_THETA=0.000000
_2THETA=0.300000
_KHI=0.000000
_PHI=90
_X=1.524000
_Y=1.000000
_Z=0.228000
_DIVERGENCE=0.000000
_ANTISCATTER=0.000000
_DETECTOR=5
_DETECTORSLIT='unkn'
_AUX1=0.000000
_AUX2=0.000000
_AUX3=0.000000
_TIMESTARTED=2.000000
_TEMP_RATE=-1.000000
_TEMP_DELAY=-1.000000
_KV=40
_MA=35
_RANGE_WL=1.540600
_3DPLANE=0
_GONIOMETER=0.299600
_PSDCHANNEL0=0
_2THETACOUNTS
   0.0000      3041
   0.0050      3060
   0.0100      3014
   0.0150      3048
   0.0200      3182
   0.0250      2981
   0.0300      3141
   0.0350      3154
   0.0400      3180
   0.0450      3143
   0.0500      3390
   0.0550      3484
   0.0600      3366
   0.0650      3563
   0.0700      3944
   0.0750      4383
   0.0800      5237
   0.0850      6111
   0.0900      7417
   0.0950      8858
   0.1000     10212
   0.1050     12667
   0.1100     16536
   0.1150     21289
   0.1200     26940
   0.1250     33573
   0.1300     46575
   0.1350     72094
   0.1400     94114
   0.1450    104099
   0.1500    119931
   0.1550    134335
   0.1600    113523
   0.1650     71379
   0.1700     42387
   0.1750     30113
   0.1800     23915
   0.1850     20152
   0.1900     16493
   0.1950     14097
   0.2000     11253
   0.2050      9561
   0.2100      7565
   0.2150      5698
   0.2200      4763
   0.2250      4484
   0.2300      4079
   0.2350      3889
   0.2400      3754
   0.2450      3627
   0.2500      3613
   0.2550      3371
   0.2600      3225
   0.2650      3394
   0.2700      3308
   0.2750      3162
   0.2800      3180
   0.2850      3059
   0.2900      3137
   0.2950      3117
   0.3000      2974