File: V44/datastefan/z_scan_2.UXD
; C:\DIFFDAT1\Praktikum\Christian_Stefan\z_scan_2.raw(Diffrac Plus V1.01 file) converted by XCH V1.0
_FILEVERSION=2
_SITE='Deutschland'
_USER='Administrator'
_GONIOMETER_CODE=4885
; D8 Theta/Theta; Special
_SAMPLE_CHANGER_CODE=0
_ATTACHMENTS_CODE=0
_GONIOMETER_RADIUS=350
_FIXED_DIVSLIT=0.600000
_FIXED_SAMPLESLIT=0.000000
_FIXED_DETSLIT=11.66
_MONOCHROMATOR=0
; None
_THIN_FILM='N'
_BETA_FILTER='Y'
_FIXED_ANTISLIT=8.340000
_ANALYZER_CODE=0
; None
_DATEMEASURED='16-Oct-2023 10:21:27'
_WL_UNIT='A'
_WL1=1.540600
_WL2=1.544390
_WL3=1.392220
_WLRATIO=0.500000
_ANODE='Cu'
; (Data for Range number 1)
_DRIVE='Z'
_STEPTIME=1.000000
_STEPSIZE=0.020000
_STEPMODE='S'
_START=-0.500000
_THETA=0.000000
_2THETA=0.000000
_KHI=0.000000
_PHI=90
_X=1.524000
_Y=1.000000
_Z=-0.500000
_DIVERGENCE=0.000000
_ANTISCATTER=0.000000
_DETECTOR=5
_DETECTORSLIT='unkn'
_AUX1=0.000000
_AUX2=0.000000
_AUX3=0.000000
_TIMESTARTED=3.000000
_TEMP_RATE=-1.000000
_TEMP_DELAY=-1.000000
_KV=40
_MA=35
_RANGE_WL=1.540600
_3DPLANE=0
_GONIOMETER=0.000000
_PSDCHANNEL0=0
_2THETACOUNTS
  -0.5000   1082470
  -0.4800   1083270
  -0.4600   1078770
  -0.4400   1081960
  -0.4200   1076860
  -0.4000   1083930
  -0.3800   1079310
  -0.3600   1077620
  -0.3400   1078260
  -0.3200   1082360
  -0.3000   1078690
  -0.2800   1079550
  -0.2600   1084640
  -0.2400   1073320
  -0.2200   1085390
  -0.2000   1079690
  -0.1800   1077380
  -0.1600   1079230
  -0.1400   1083480
  -0.1200   1084570
  -0.1000   1078580
  -0.0800   1070880
  -0.0600   1064010
  -0.0400   1045060
  -0.0200   1032020
   0.0000   1016730
   0.0200    996877
   0.0400    972293
   0.0600    946286
   0.0800    913193
   0.1000    880621
   0.1200    831831
   0.1400    784280
   0.1600    732164
   0.1800    672527
   0.2000    617654
   0.2200    565877
   0.2400    510846
   0.2600    462656
   0.2800    417784
   0.3000    372667
   0.3200    323426
   0.3400    282670
   0.3600    239931
   0.3800    200218
   0.4000    158537
   0.4200    119320
   0.4400     90330
   0.4600     62751
   0.4800     40484
   0.5000     22540