File: Stefans_V44/datastefan/omega_scan_1.UXD
; C:\DIFFDAT1\Praktikum\Christian_Stefan\omega_scan_1.raw(Diffrac Plus V1.01 file) converted by XCH V1.0
_FILEVERSION=2
_SITE='Deutschland'
_USER='Administrator'
_GONIOMETER_CODE=4885
; D8 Theta/Theta; Special
_SAMPLE_CHANGER_CODE=0
_ATTACHMENTS_CODE=0
_GONIOMETER_RADIUS=350
_FIXED_DIVSLIT=0.600000
_FIXED_SAMPLESLIT=0.000000
_FIXED_DETSLIT=11.66
_MONOCHROMATOR=0
; None
_THIN_FILM='N'
_BETA_FILTER='Y'
_FIXED_ANTISLIT=8.340000
_ANALYZER_CODE=0
; None
_DATEMEASURED='16-Oct-2023 11:15:18'
_WL_UNIT='A'
_WL1=1.540600
_WL2=1.544390
_WL3=1.392220
_WLRATIO=0.500000
_ANODE='Cu'
; (Data for Range number 1)
_DRIVE='THETA'
_STEPTIME=5.000660
_STEPSIZE=0.005000
_STEPMODE='C'
_START=0.000000
_THETA=0.000000
_2THETA=0.000000
_KHI=0.000000
_PHI=90
_X=1.577000
_Y=1.000000
_Z=0.275000
_DIVERGENCE=0.000000
_ANTISCATTER=0.000000
_DETECTOR=5
_DETECTORSLIT='unkn'
_AUX1=0.000000
_AUX2=0.000000
_AUX3=0.000000
_TIMESTARTED=2.000000
_TEMP_RATE=-1.000000
_TEMP_DELAY=-1.000000
_KV=40
_MA=35
_RANGE_WL=1.540600
_3DPLANE=0
_GONIOMETER=-0.002500
_PSDCHANNEL0=0
_2THETACOUNTS
   0.0000   2355270
   0.0100   3762390
   0.0200   4224280
   0.0300   3559930
   0.0400   2434860
   0.0500   1386620
   0.0600    845964
   0.0700    573362
   0.0800    516732
   0.0900    492434
   0.1000    398016
   0.1100    391894
   0.1200    415475
   0.1300    442625
   0.1400    474162
   0.1500    506128
   0.1600    530797
   0.1700    535915
   0.1800    522585
   0.1900    560287
   0.2000    568282
   0.2100    616660
   0.2200    579497
   0.2300    523675
   0.2400    351329
   0.2500    152278
   0.2600     73389
   0.2700     75857
   0.2800     69380
   0.2900     39564
   0.3000     20839
   0.3100     24438
   0.3200     29180
   0.3300     22530
   0.3400     11860
   0.3500      9402
   0.3600     13193
   0.3700     14150
   0.3800     10106
   0.3900      5590
   0.4000      5300
   0.4100      7298
   0.4200      7562
   0.4300      5441
   0.4400      3127
   0.4500      3141
   0.4600      4290
   0.4700      4734
   0.4800      3300
   0.4900      2017
   0.5000      2074
   0.5100      2776
   0.5200      3007
   0.5300      2367
   0.5400      1490
   0.5500      1399
   0.5600      1769
   0.5700      1947
   0.5800      1700
   0.5900      1066
   0.6000       957
   0.6100      1236
   0.6200      1360
   0.6300      1213
   0.6400       837
   0.6500       668
   0.6600       807
   0.6700       913
   0.6800       879
   0.6900       671
   0.7000       521
   0.7100       585
   0.7200       692
   0.7300       662
   0.7400       532
   0.7500       422
   0.7600       437
   0.7700       496
   0.7800       503
   0.7900       400
   0.8000       327
   0.8100       324
   0.8200       370
   0.8300       350
   0.8400       366
   0.8500       288
   0.8600       252
   0.8700       264
   0.8800       300
   0.8900       300
   0.9000       224
   0.9100       219
   0.9200       228
   0.9300       256
   0.9400       251
   0.9500       199
   0.9600       165
   0.9700       156
   0.9800       170
   0.9900       167
   1.0000       155
   1.0100       115
   1.0200       106
   1.0300       118
   1.0400       146
   1.0500       123
   1.0600        85
   1.0700        88
   1.0800       102
   1.0900       106
   1.1000        86
   1.1100        94
   1.1200        68
   1.1300        65
   1.1400        70
   1.1500        73
   1.1600        74
   1.1700        69
   1.1800        66
   1.1900        59
   1.2000        60
   1.2100        47
   1.2200        50
   1.2300        46
   1.2400        53
   1.2500        34
   1.2600        43
   1.2700        34
   1.2800        27
   1.2900        33
   1.3000        39
   1.3100        42
   1.3200        24
   1.3300        22
   1.3400        22
   1.3500        24
   1.3600        14
   1.3700        40
   1.3800        17
   1.3900        22
   1.4000        20
   1.4100        23
   1.4200        20
   1.4300        18
   1.4400        14
   1.4500        24
   1.4600        21
   1.4700        12
   1.4800        11
   1.4900        15
   1.5000        16
   1.5100        12
   1.5200         7
   1.5300        14
   1.5400        13
   1.5500        17
   1.5600        14
   1.5700        18
   1.5800        19
   1.5900        11
   1.6000        13
   1.6100        11
   1.6200        13
   1.6300        10
   1.6400         9
   1.6500         5
   1.6600         7
   1.6700         9
   1.6800         6
   1.6900         4
   1.7000         7
   1.7100        14
   1.7200         6
   1.7300         4
   1.7400         3
   1.7500         4
   1.7600        13
   1.7700         6
   1.7800        12
   1.7900         6
   1.8000         6
   1.8100         0
   1.8200         6
   1.8300         5
   1.8400         4
   1.8500         1
   1.8600         3
   1.8700         8
   1.8800         3
   1.8900         5
   1.9000         9
   1.9100         4
   1.9200         5
   1.9300         7
   1.9400         4
   1.9500         1
   1.9600         2
   1.9700         6
   1.9800         0
   1.9900         1
   2.0000         3
   2.0100         3
   2.0200         6
   2.0300         4
   2.0400         3
   2.0500         1
   2.0600         3
   2.0700         0
   2.0800         4
   2.0900         1
   2.1000         2
   2.1100         1
   2.1200         4
   2.1300         2
   2.1400         0
   2.1500         0
   2.1600         1
   2.1700         2
   2.1800         3
   2.1900         2
   2.2000         3
   2.2100         0
   2.2200         0
   2.2300         1
   2.2400         3
   2.2500         5
   2.2600         0
   2.2700         0
   2.2800         2
   2.2900         3
   2.3000         2
   2.3100         1
   2.3200         1
   2.3300         1
   2.3400         3
   2.3500         0
   2.3600         3
   2.3700         0
   2.3800         1
   2.3900         1
   2.4000         0
   2.4100         2
   2.4200         3
   2.4300         1
   2.4400         0
   2.4500         2
   2.4600         1
   2.4700         2
   2.4800         2
   2.4900         1
   2.5000         0