File: Stefans_V44/datastefan/omega_scan_background.UXD
; C:\DIFFDAT1\Praktikum\Christian_Stefan\omega_scan_background.raw(Diffrac Plus V1.01 file) converted by XCH V1.0
_FILEVERSION=2
_SITE='Deutschland'
_USER='Administrator'
_GONIOMETER_CODE=4885
; D8 Theta/Theta; Special
_SAMPLE_CHANGER_CODE=0
_ATTACHMENTS_CODE=0
_GONIOMETER_RADIUS=350
_FIXED_DIVSLIT=0.600000
_FIXED_SAMPLESLIT=0.000000
_FIXED_DETSLIT=11.66
_MONOCHROMATOR=0
; None
_THIN_FILM='N'
_BETA_FILTER='Y'
_FIXED_ANTISLIT=8.340000
_ANALYZER_CODE=0
; None
_DATEMEASURED='16-Oct-2023 12:00:09'
_WL_UNIT='A'
_WL1=1.540600
_WL2=1.544390
_WL3=1.392220
_WLRATIO=0.500000
_ANODE='Cu'
; (Data for Range number 1)
_DRIVE='THETA'
_STEPTIME=5.000660
_STEPSIZE=0.005000
_STEPMODE='C'
_START=0.000000
_THETA=0.000000
_2THETA=0.200000
_KHI=0.000000
_PHI=90
_X=1.577000
_Y=1.000000
_Z=0.275000
_DIVERGENCE=0.000000
_ANTISCATTER=0.000000
_DETECTOR=5
_DETECTORSLIT='unkn'
_AUX1=0.000000
_AUX2=0.000000
_AUX3=0.000000
_TIMESTARTED=1.000000
_TEMP_RATE=-1.000000
_TEMP_DELAY=-1.000000
_KV=40
_MA=35
_RANGE_WL=1.540600
_3DPLANE=0
_GONIOMETER=0.197500
_PSDCHANNEL0=0
_2THETACOUNTS
   0.0000     75967
   0.0100     44858
   0.0200     32613
   0.0300     24035
   0.0400     19270
   0.0500     15928
   0.0600     11139
   0.0700      8416
   0.0800      6729
   0.0900      5848
   0.1000      5255
   0.1100      4691
   0.1200      4306
   0.1300      3997
   0.1400      3842
   0.1500      3650
   0.1600      3335
   0.1700      3161
   0.1800      2857
   0.1900      2508
   0.2000      2213
   0.2100      1817
   0.2200      1544
   0.2300      1319
   0.2400      1110
   0.2500       953
   0.2600       840
   0.2700       772
   0.2800       644
   0.2900       525
   0.3000       401
   0.3100       323
   0.3200       227
   0.3300       113
   0.3400        83
   0.3500        38
   0.3600        49
   0.3700        43
   0.3800        41
   0.3900        46
   0.4000        29
   0.4100        38
   0.4200        31
   0.4300        28
   0.4400        26
   0.4500        21
   0.4600        24
   0.4700        28
   0.4800        29
   0.4900        17
   0.5000        15
   0.5100        20
   0.5200        24
   0.5300        25
   0.5400        23
   0.5500        25
   0.5600        25
   0.5700        12
   0.5800        23
   0.5900        24
   0.6000        22
   0.6100        17
   0.6200        27
   0.6300        19
   0.6400        21
   0.6500        13
   0.6600        18
   0.6700        20
   0.6800        20
   0.6900        16
   0.7000        19
   0.7100        16
   0.7200        23
   0.7300        23
   0.7400        17
   0.7500        13
   0.7600        12
   0.7700        22
   0.7800        18
   0.7900        22
   0.8000        33
   0.8100        24
   0.8200        18
   0.8300        34
   0.8400        26
   0.8500        24
   0.8600        18
   0.8700        20
   0.8800        10
   0.8900        11
   0.9000         8
   0.9100         1
   0.9200         5
   0.9300         5
   0.9400         6
   0.9500         5
   0.9600         4
   0.9700         3
   0.9800         4
   0.9900         1
   1.0000         2
   1.0100         2
   1.0200         1
   1.0300         4
   1.0400         2
   1.0500         3
   1.0600         6
   1.0700         5
   1.0800         2
   1.0900         3
   1.1000         3
   1.1100         0
   1.1200         3
   1.1300         2
   1.1400         5
   1.1500         2
   1.1600         3
   1.1700         3
   1.1800         1
   1.1900         2
   1.2000         4
   1.2100         1
   1.2200         0
   1.2300         3
   1.2400         0
   1.2500         0
   1.2600         1
   1.2700         1
   1.2800         1
   1.2900         1
   1.3000         2
   1.3100         2
   1.3200         1
   1.3300         0
   1.3400         0
   1.3500         1
   1.3600         0
   1.3700         3
   1.3800         0
   1.3900         1
   1.4000         0
   1.4100         1
   1.4200         3
   1.4300         1
   1.4400         4
   1.4500         4
   1.4600         1
   1.4700         1
   1.4800         0
   1.4900         1
   1.5000         0
   1.5100         1
   1.5200         2
   1.5300         3
   1.5400         0
   1.5500         1
   1.5600         2
   1.5700         1
   1.5800         1
   1.5900         0
   1.6000         3
   1.6100         0
   1.6200         2
   1.6300         0
   1.6400         1
   1.6500         0
   1.6600         2
   1.6700         2
   1.6800         0
   1.6900         2
   1.7000         0
   1.7100         1
   1.7200         0
   1.7300         0
   1.7400         0
   1.7500         1
   1.7600         1
   1.7700         1
   1.7800         0
   1.7900         0
   1.8000         0
   1.8100         0
   1.8200         0
   1.8300         1
   1.8400         0
   1.8500         0
   1.8600         1
   1.8700         0
   1.8800         0
   1.8900         3
   1.9000         2
   1.9100         0
   1.9200         0
   1.9300         1
   1.9400         1
   1.9500         0
   1.9600         0
   1.9700         0
   1.9800         0
   1.9900         1
   2.0000         2
   2.0100         0
   2.0200         1
   2.0300         2
   2.0400         2
   2.0500         1
   2.0600         0
   2.0700         3
   2.0800         0
   2.0900         1
   2.1000         0
   2.1100         0
   2.1200         1
   2.1300         2
   2.1400         0
   2.1500         0
   2.1600         3
   2.1700         2
   2.1800         0
   2.1900         2
   2.2000         1
   2.2100         0
   2.2200         1
   2.2300         1
   2.2400         0
   2.2500         1
   2.2600         0
   2.2700         2
   2.2800         0
   2.2900         0
   2.3000         2
   2.3100         3
   2.3200         0
   2.3300         1
   2.3400         0
   2.3500         0
   2.3600         1
   2.3700         0
   2.3800         0
   2.3900         0
   2.4000         1
   2.4100         0
   2.4200         0
   2.4300         0
   2.4400         0
   2.4500         1
   2.4600         0
   2.4700         0
   2.4800         2
   2.4900         0
   2.5000         3